    Time,sec      Abs(UY,mm)      Abs(UZ,mm)   Phase(UY,deg)   Phase(UZ,deg)       Freqz(Hz)=189.16       Freqy(Hz)=189.16
    0.000000        0.000000        0.000000        0.000000          180.00        0.00        0.00
    0.000500        0.001978        0.001978        1.219087          -88.78        0.00        0.00
    0.001000        0.006928        0.006928        2.556533          -87.44        0.00        0.00
    0.001500        0.012874        0.012874        4.132774          -85.87        0.00        0.00
    0.002000        0.017779        0.017779        6.117059          -83.88        0.00        0.00
    0.002500        0.020208        0.020208        8.799471          -81.20        0.00        0.00
    0.003000        0.019730        0.019730       12.702785          -77.30        0.00        0.00
    0.003500        0.016951        0.016951       18.784809          -71.22        0.00        0.00
    0.004000        0.013235        0.013235       28.582945          -61.42        0.00        0.00
    0.004500        0.010161        0.010161       42.979819          -47.02        0.00        0.00
    0.005000        0.008666        0.008666       57.385392          -32.61        0.00        0.00
    0.005500        0.008503        0.008503       62.734935          -27.27        0.00        0.00
    0.006000        0.009261        0.009261       57.695408          -32.30        0.00        0.00
    0.006500        0.010847        0.010847       49.127784          -40.87        0.00        0.00
    0.007000        0.012777        0.012777       43.033162          -46.97        0.00        0.00
    0.007500        0.014260        0.014260       41.000714          -49.00        0.00        0.00
    0.008000        0.014765        0.014765       42.847216          -47.15        0.00        0.00
    0.008500        0.014288        0.014288       48.409332          -41.59        0.00        0.00
    0.009000        0.013294        0.013294       57.507484          -32.49        0.00        0.00
    0.009500        0.012407        0.012407       68.934088          -21.07        0.00        0.00
    0.010000        0.011971        0.011971       79.803572          -10.20        0.00        0.00
    0.010500        0.011878        0.011878       87.121785           -2.88        0.00        0.00
    0.011000        0.011878        0.011878       89.808329           -0.19        0.00        0.00
    0.011500        0.011887        0.011887       88.721641           -1.28        0.00        0.00
    0.012000        0.011949        0.011949       85.875054           -4.12        0.00        0.00
    0.012500        0.012063        0.012063       83.608033           -6.39        0.00        0.00
    0.013000        0.012149        0.012149       83.701902           -6.30        0.00        0.00
    0.013500        0.012159        0.012159       86.919566           -3.08        0.00        0.00
    0.014000        0.012161        0.012161       92.980941            2.98        0.00        0.00
    0.014500        0.012267        0.012267      100.683578           10.68        0.00        0.00
    0.015000        0.012496        0.012496      108.365243           18.37        0.00        0.00
    0.015500        0.012731        0.012731      114.695759           24.70        0.00        0.00
    0.016000        0.012823        0.012823      119.131635           29.13        0.00        0.00
    0.016500        0.012700        0.012700      121.809509           31.81        0.00        0.00
    0.017000        0.012401        0.012401      123.287301           33.29        0.00        0.00
    0.017500        0.012041        0.012041      124.364938           34.36        0.00        0.00
    0.018000        0.011740        0.011740      125.899709           35.90        0.00        0.00
    0.018500        0.011592        0.011592      128.526372           38.53        0.00        0.00
    0.019000        0.011639        0.011639      132.389930           42.39        0.00        0.00
    0.019500        0.011870        0.011870      137.116357           47.12        0.00        0.00
    0.020000        0.012208        0.012208      142.084280           52.08        0.00        0.00
    0.020500        0.012537        0.012537      146.774086           56.77        0.00        0.00
    0.021000        0.012742        0.012742      150.940252           60.94        0.00        0.00
    0.021500        0.012759        0.012759      154.586533           64.59        0.00        0.00
    0.022000        0.012596        0.012596      157.867284           67.87        0.00        0.00
    0.022500        0.012322        0.012322      160.996517           71.00        0.00        0.00
    0.023000        0.012037        0.012037      164.174731           74.17        0.00        0.00
    0.023500        0.011834        0.011834      167.526588           77.53        0.00        0.00
    0.024000        0.011771        0.011771      171.065269           81.07        0.00        0.00
    0.024500        0.011854        0.011854      174.711709           84.71        0.00        0.00
    0.025000        0.012038        0.012038      178.363068           88.36        0.00        0.00
    0.025500        0.012251        0.012251     -178.039982           91.96        0.00        0.00
    0.026000        0.012422        0.012422     -174.490194           95.51        0.00        0.00
    0.026500        0.012500        0.012500     -170.933744           99.07        0.00        0.00
    0.027000        0.012474        0.012474     -167.308363          102.69        0.00        0.00
    0.027500        0.012368        0.012368     -163.579597          106.42        0.00        0.00
    0.028000        0.012228        0.012228     -159.763957          110.24        0.00        0.00
    0.028500        0.012106        0.012106     -155.929816          114.07        0.00        0.00
    0.029000        0.012036        0.012036     -152.170947          117.83        0.00        0.00
    0.029500        0.012032        0.012032     -148.561817          121.44        0.00        0.00
    0.030000        0.012082        0.012082     -145.119265          124.88        0.00        0.00
    0.030500        0.012160        0.012160     -141.793209          128.21        0.00        0.00
    0.031000        0.012236        0.012236     -138.488890          131.51        0.00        0.00
    0.031500        0.012285        0.012285     -135.105144          134.89        0.00        0.00
    0.032000        0.012299        0.012299     -131.570682          138.43        0.00        0.00
    0.032500        0.012281        0.012281     -127.867197          142.13        0.00        0.00
    0.033000        0.012245        0.012245     -124.034304          145.97        0.00        0.00
    0.033500        0.012207        0.012207     -120.154971          149.85        0.00        0.00
    0.034000        0.012181        0.012181     -116.325224          153.67        0.00        0.00
    0.034500        0.012170        0.012170     -112.618910          157.38        0.00        0.00
    0.035000        0.012174        0.012174     -109.062115          160.94        0.00        0.00
    0.035500        0.012185        0.012185     -105.627510          164.37        0.00        0.00
    0.036000        0.012196        0.012196     -102.249024          167.75        0.00        0.00
    0.036500        0.012204        0.012204      -98.848624          171.15        0.00        0.00
    0.037000        0.012207        0.012207      -95.363985          174.64        0.00        0.00
    0.037500        0.012208        0.012208      -91.767594          178.23        0.00        0.00
    0.038000        0.012208        0.012208      -88.072035         -178.07        0.00        0.00
    0.038500        0.012210        0.012210      -84.321075         -174.32        0.00        0.00
    0.039000        0.012214        0.012214      -80.571017         -170.57        0.00        0.00
    0.039500        0.012218        0.012218      -76.869989         -166.87        0.00        0.00
    0.040000        0.012220        0.012220      -73.242920         -163.24        0.00        0.00
    0.040500        0.012217        0.012217      -69.686727         -159.69        0.00        0.00
    0.041000        0.012209        0.012209      -66.175756         -156.18        0.00        0.00
    0.041500        0.012199        0.012199      -62.673893         -152.67        0.00        0.00
    0.042000        0.012190        0.012190      -59.148243         -149.15        0.00        0.00
    0.042500        0.012186        0.012186      -55.579548         -145.58        0.00        0.00
    0.043000        0.012188        0.012188      -51.966280         -141.97        0.00        0.00
    0.043500        0.012196        0.012196      -48.321881         -138.32        0.00        0.00
    0.044000        0.012207        0.012207      -44.667257         -134.67        0.00        0.00
    0.044500        0.012217        0.012217      -41.022090         -131.02        0.00        0.00
    0.045000        0.012224        0.012224      -37.398393         -127.40        0.00        0.00
    0.045500        0.012224        0.012224      -33.798182         -123.80        0.00        0.00
    0.046000        0.012218        0.012218      -30.215172         -120.22        0.00        0.00
    0.046500        0.012208        0.012208      -26.639004         -116.64        0.00        0.00
    0.047000        0.012199        0.012199      -23.059918         -113.06        0.00        0.00
    0.047500        0.012192        0.012192      -19.472116         -109.47        0.00        0.00
    0.048000        0.012190        0.012190      -15.874805         -105.87        0.00        0.00
    0.048500        0.012194        0.012194      -12.271036         -102.27        0.00        0.00
    0.049000        0.012200        0.012200       -8.665272          -98.67        0.00        0.00
    0.049500        0.012208        0.012208       -5.060992          -95.06        0.00        0.00
    0.050000        0.012214        0.012214       -1.459366          -91.46        0.00        0.00
    0.050500        0.012216        0.012216        2.140651          -87.86        0.00        0.00
    0.051000        0.012215        0.012215        5.741147          -84.26        0.00        0.00
    0.051500        0.012211        0.012211        9.343752          -80.66        0.00        0.00
    0.052000        0.012206        0.012206       12.948578          -77.05        0.00        0.00
    0.052500        0.012201        0.012201       16.554078          -73.45        0.00        0.00
    0.053000        0.012199        0.012199       20.157796          -69.84        0.00        0.00
    0.053500        0.012199        0.012199       23.757615          -66.24        0.00        0.00
    0.054000        0.012201        0.012201       27.352855          -62.65        0.00        0.00
    0.054500        0.012204        0.012204       30.944723          -59.06        0.00        0.00
    0.055000        0.012207        0.012207       34.535912          -55.46        0.00        0.00
    0.055500        0.012209        0.012209       38.129550          -51.87        0.00        0.00
    0.056000        0.012209        0.012209       41.727962          -48.27        0.00        0.00
    0.056500        0.012208        0.012208       45.331756          -44.67        0.00        0.00
    0.057000        0.012207        0.012207       48.939596          -41.06        0.00        0.00
    0.057500        0.012205        0.012205       52.548728          -37.45        0.00        0.00
    0.058000        0.012204        0.012204       56.156023          -33.84        0.00        0.00
    0.058500        0.012204        0.012204       59.759120          -30.24        0.00        0.00
    0.059000        0.012204        0.012204       63.357230          -26.64        0.00        0.00
    0.059500        0.012205        0.012205       66.951321          -23.05        0.00        0.00
    0.060000        0.012205        0.012205       70.543656          -19.46        0.00        0.00
    0.060500        0.012206        0.012206       74.136903          -15.86        0.00        0.00
    0.061000        0.012206        0.012206       77.733190          -12.27        0.00        0.00
    0.061500        0.012206        0.012206       81.333418           -8.67        0.00        0.00
    0.062000        0.012206        0.012206       84.937083           -5.06        0.00        0.00
    0.062500        0.012206        0.012206       88.542596           -1.46        0.00        0.00
    0.063000        0.012206        0.012206       92.147944            2.15        0.00        0.00
    0.063500        0.012206        0.012206       95.751422            5.75        0.00        0.00
    0.064000        0.012206        0.012206       99.352166            9.35        0.00        0.00
    0.064500        0.012206        0.012206      102.950331           12.95        0.00        0.00
    0.065000        0.012205        0.012205      106.546894           16.55        0.00        0.00
    0.065500        0.012205        0.012205      110.143210           20.14        0.00        0.00
    0.066000        0.012205        0.012205      113.740496           23.74        0.00        0.00
    0.066500        0.012205        0.012205      117.339452           27.34        0.00        0.00
    0.067000        0.012205        0.012205      120.940108           30.94        0.00        0.00
    0.067500        0.012205        0.012205      124.541936           34.54        0.00        0.00
    0.068000        0.012206        0.012206      128.144122           38.14        0.00        0.00
    0.068500        0.012206        0.012206      131.745899           41.75        0.00        0.00
    0.069000        0.012206        0.012206      135.346792           45.35        0.00        0.00
    0.069500        0.012206        0.012206      138.946719           48.95        0.00        0.00
    0.070000        0.012206        0.012206      142.545936           52.55        0.00        0.00
    0.070500        0.012206        0.012206      146.144871           56.14        0.00        0.00
    0.071000        0.012205        0.012205      149.743939           59.74        0.00        0.00
    0.071500        0.012205        0.012205      153.343399           63.34        0.00        0.00
    0.072000        0.012205        0.012205      156.943303           66.94        0.00        0.00
    0.072500        0.012205        0.012205      160.543531           70.54        0.00        0.00
    0.073000        0.012205        0.012205      164.143888           74.14        0.00        0.00
    0.073500        0.012206        0.012206      167.744198           77.74        0.00        0.00
    0.074000        0.012206        0.012206      171.344373           81.34        0.00        0.00
    0.074500        0.012206        0.012206      174.944419           84.94        0.00        0.00
    0.075000        0.012206        0.012206      178.544407           88.54        0.00        0.00
    0.075500        0.012206        0.012206     -177.855587           92.14        0.00        0.00
    0.076000        0.012205        0.012205     -174.255525           95.74        0.00        0.00
    0.076500        0.012205        0.012205     -170.655426           99.34        0.00        0.00
    0.077000        0.012205        0.012205     -167.055353          102.94        0.00        0.00
    0.077500        0.012205        0.012205     -163.455368          106.54        0.00        0.00
    0.078000        0.012205        0.012205     -159.855501          110.14        0.00        0.00
    0.078500        0.012205        0.012205     -156.255728          113.74        0.00        0.00
    0.079000        0.012206        0.012206     -152.655976          117.34        0.00        0.00
    0.079500        0.012206        0.012206     -149.056152          120.94        0.00        0.00
    0.080000        0.012206        0.012206     -145.456185          124.54        0.00        0.00
    0.080500        0.012206        0.012206     -141.856054          128.14        0.00        0.00
    0.081000        0.012206        0.012206     -138.255801          131.74        0.00        0.00
    0.081500        0.012205        0.012205     -134.655511          135.34        0.00        0.00
    0.082000        0.012205        0.012205     -131.055286          138.94        0.00        0.00
    0.082500        0.012205        0.012205     -127.455199          142.54        0.00        0.00
    0.083000        0.012205        0.012205     -123.855276          146.14        0.00        0.00
    0.083500        0.012205        0.012205     -120.255483          149.74        0.00        0.00
    0.084000        0.012205        0.012205     -116.655743          153.34        0.00        0.00
    0.084500        0.012205        0.012205     -113.055966          156.94        0.00        0.00
    0.085000        0.012205        0.012205     -109.456083          160.54        0.00        0.00
    0.085500        0.012205        0.012205     -105.856062          164.14        0.00        0.00
    0.086000        0.012205        0.012205     -102.255925          167.74        0.00        0.00
    0.086500        0.012205        0.012205      -98.655728          171.34        0.00        0.00
    0.087000        0.012205        0.012205      -95.055541          174.94        0.00        0.00
    0.087500        0.012205        0.012205      -91.455424          178.54        0.00        0.00
    0.088000        0.012205        0.012205      -87.855406         -177.86        0.00        0.00
    0.088500        0.012205        0.012205      -84.255480         -174.26        0.00        0.00
    0.089000        0.012205        0.012205      -80.655610         -170.66        0.00        0.00
    0.089500        0.012205        0.012205      -77.055746         -167.06        0.00        0.00
    0.090000        0.012205        0.012205      -73.455843         -163.46        0.00        0.00
    0.090500        0.012205        0.012205      -69.855876         -159.86        0.00        0.00
    0.091000        0.012205        0.012205      -66.255846         -156.26        0.00        0.00
    0.091500        0.012205        0.012205      -62.655772         -152.66        0.00        0.00
    0.092000        0.012205        0.012205      -59.055687         -149.06        0.00        0.00
    0.092500        0.012205        0.012205      -55.455619         -145.46        0.00        0.00
    0.093000        0.012205        0.012205      -51.855587         -141.86        0.00        0.00
    0.093500        0.012205        0.012205      -48.255593         -138.26        0.00        0.00
    0.094000        0.012205        0.012205      -44.655628         -134.66        0.00        0.00
    0.094500        0.012205        0.012205      -41.055673         -131.06        0.00        0.00
    0.095000        0.012205        0.012205      -37.455712         -127.46        0.00        0.00
    0.095500        0.012205        0.012205      -33.855734         -123.86        0.00        0.00
    0.096000        0.012205        0.012205      -30.255737         -120.26        0.00        0.00
    0.096500        0.012205        0.012205      -26.655725         -116.66        0.00        0.00
    0.097000        0.012205        0.012205      -23.055707         -113.06        0.00        0.00
    0.097500        0.012205        0.012205      -19.455690         -109.46        0.00        0.00
    0.098000        0.012205        0.012205      -15.855680         -105.86        0.00        0.00
    0.098500        0.012205        0.012205      -12.255677         -102.26        0.00        0.00
    0.099000        0.012205        0.012205       -8.655679          -98.66        0.00        0.00
    0.099500        0.012205        0.012205       -5.055683          -95.06        0.00        0.00
    0.100000        0.012205        0.012205       -1.455684          -91.46        0.00        0.00
    0.100500        0.012205        0.012205        2.144316          -87.86        0.00        0.00
    0.101000        0.012205        0.012205        5.744316          -84.26        0.00        0.00
    0.101500        0.012205        0.012205        9.344316          -80.66        0.00        0.00
    0.102000        0.012205        0.012205       12.944313          -77.06        0.00        0.00
    0.102500        0.012205        0.012205       16.544307          -73.46        0.00        0.00
    0.103000        0.012205        0.012205       20.144301          -69.86        0.00        0.00
    0.103500        0.012205        0.012205       23.744296          -66.26        0.00        0.00
    0.104000        0.012205        0.012205       27.344296          -62.66        0.00        0.00
    0.104500        0.012205        0.012205       30.944300          -59.06        0.00        0.00
    0.105000        0.012205        0.012205       34.544308          -55.46        0.00        0.00
    0.105500        0.012205        0.012205       38.144317          -51.86        0.00        0.00
    0.106000        0.012205        0.012205       41.744324          -48.26        0.00        0.00
    0.106500        0.012205        0.012205       45.344326          -44.66        0.00        0.00
    0.107000        0.012205        0.012205       48.944323          -41.06        0.00        0.00
    0.107500        0.012205        0.012205       52.544316          -37.46        0.00        0.00
    0.108000        0.012205        0.012205       56.144307          -33.86        0.00        0.00
    0.108500        0.012205        0.012205       59.744300          -30.26        0.00        0.00
    0.109000        0.012205        0.012205       63.344296          -26.66        0.00        0.00
    0.109500        0.012205        0.012205       66.944298          -23.06        0.00        0.00
    0.110000        0.012205        0.012205       70.544303          -19.46        0.00        0.00
    0.110500        0.012205        0.012205       74.144309          -15.86        0.00        0.00
    0.111000        0.012205        0.012205       77.744316          -12.26        0.00        0.00
    0.111500        0.012205        0.012205       81.344320           -8.66        0.00        0.00
    0.112000        0.012205        0.012205       84.944320           -5.06        0.00        0.00
    0.112500        0.012205        0.012205       88.544317           -1.46        0.00        0.00
    0.113000        0.012205        0.012205       92.144312            2.14        0.00        0.00
    0.113500        0.012205        0.012205       95.744307            5.74        0.00        0.00
    0.114000        0.012205        0.012205       99.344304            9.34        0.00        0.00
    0.114500        0.012205        0.012205      102.944303           12.94        0.00        0.00
    0.115000        0.012205        0.012205      106.544304           16.54        0.00        0.00
    0.115500        0.012205        0.012205      110.144307           20.14        0.00        0.00
    0.116000        0.012205        0.012205      113.744310           23.74        0.00        0.00
    0.116500        0.012205        0.012205      117.344313           27.34        0.00        0.00
    0.117000        0.012205        0.012205      120.944314           30.94        0.00        0.00
    0.117500        0.012205        0.012205      124.544314           34.54        0.00        0.00
    0.118000        0.012205        0.012205      128.144312           38.14        0.00        0.00
    0.118500        0.012205        0.012205      131.744310           41.74        0.00        0.00
    0.119000        0.012205        0.012205      135.344309           45.34        0.00        0.00
    0.119500        0.012205        0.012205      138.944308           48.94        0.00        0.00
    0.120000        0.012205        0.012205      142.544308           52.54        0.00        0.00
    0.120500        0.012205        0.012205      146.144309           56.14        0.00        0.00
    0.121000        0.012205        0.012205      149.744309           59.74        0.00        0.00
    0.121500        0.012205        0.012205      153.344310           63.34        0.00        0.00
    0.122000        0.012205        0.012205      156.944311           66.94        0.00        0.00
    0.122500        0.012205        0.012205      160.544311           70.54        0.00        0.00
    0.123000        0.012205        0.012205      164.144311           74.14        0.00        0.00
    0.123500        0.012205        0.012205      167.744310           77.74        0.00        0.00
    0.124000        0.012205        0.012205      171.344310           81.34        0.00        0.00
    0.124500        0.012205        0.012205      174.944310           84.94        0.00        0.00
    0.125000        0.012205        0.012205      178.544310           88.54        0.00        0.00
    0.125500        0.012205        0.012205     -177.855690           92.14        0.00        0.00
    0.126000        0.012205        0.012205     -174.255690           95.74        0.00        0.00
    0.126500        0.012205        0.012205     -170.655690           99.34        0.00        0.00
    0.127000        0.012205        0.012205     -167.055690          102.94        0.00        0.00
    0.127500        0.012205        0.012205     -163.455690          106.54        0.00        0.00
    0.128000        0.012205        0.012205     -159.855690          110.14        0.00        0.00
    0.128500        0.012205        0.012205     -156.255690          113.74        0.00        0.00
    0.129000        0.012205        0.012205     -152.655690          117.34        0.00        0.00
    0.129500        0.012205        0.012205     -149.055690          120.94        0.00        0.00
    0.130000        0.012205        0.012205     -145.455690          124.54        0.00        0.00
    0.130500        0.012205        0.012205     -141.855689          128.14        0.00        0.00
    0.131000        0.012205        0.012205     -138.255690          131.74        0.00        0.00
    0.131500        0.012205        0.012205     -134.655690          135.34        0.00        0.00
    0.132000        0.012205        0.012205     -131.055690          138.94        0.00        0.00
    0.132500        0.012205        0.012205     -127.455690          142.54        0.00        0.00
    0.133000        0.012205        0.012205     -123.855690          146.14        0.00        0.00
    0.133500        0.012205        0.012205     -120.255690          149.74        0.00        0.00
    0.134000        0.012205        0.012205     -116.655690          153.34        0.00        0.00
    0.134500        0.012205        0.012205     -113.055690          156.94        0.00        0.00
    0.135000        0.012205        0.012205     -109.455690          160.54        0.00        0.00
    0.135500        0.012205        0.012205     -105.855690          164.14        0.00        0.00
    0.136000        0.012205        0.012205     -102.255690          167.74        0.00        0.00
    0.136500        0.012205        0.012205      -98.655690          171.34        0.00        0.00
    0.137000        0.012205        0.012205      -95.055690          174.94        0.00        0.00
    0.137500        0.012205        0.012205      -91.455690          178.54        0.00        0.00
    0.138000        0.012205        0.012205      -87.855690         -177.86        0.00        0.00
    0.138500        0.012205        0.012205      -84.255690         -174.26        0.00        0.00
    0.139000        0.012205        0.012205      -80.655690         -170.66        0.00        0.00
    0.139500        0.012205        0.012205      -77.055690         -167.06        0.00        0.00
    0.140000        0.012205        0.012205      -73.455690         -163.46        0.00        0.00
    0.140500        0.012205        0.012205      -69.855690         -159.86        0.00        0.00
    0.141000        0.012205        0.012205      -66.255690         -156.26        0.00        0.00
    0.141500        0.012205        0.012205      -62.655690         -152.66        0.00        0.00
    0.142000        0.012205        0.012205      -59.055690         -149.06        0.00        0.00
    0.142500        0.012205        0.012205      -55.455690         -145.46        0.00        0.00
    0.143000        0.012205        0.012205      -51.855690         -141.86        0.00        0.00
    0.143500        0.012205        0.012205      -48.255690         -138.26        0.00        0.00
    0.144000        0.012205        0.012205      -44.655690         -134.66        0.00        0.00
    0.144500        0.012205        0.012205      -41.055690         -131.06        0.00        0.00
    0.145000        0.012205        0.012205      -37.455690         -127.46        0.00        0.00
    0.145500        0.012205        0.012205      -33.855690         -123.86        0.00        0.00
    0.146000        0.012205        0.012205      -30.255690         -120.26        0.00        0.00
    0.146500        0.012205        0.012205      -26.655690         -116.66        0.00        0.00
    0.147000        0.012205        0.012205      -23.055690         -113.06        0.00        0.00
    0.147500        0.012205        0.012205      -19.455690         -109.46        0.00        0.00
    0.148000        0.012205        0.012205      -15.855690         -105.86        0.00        0.00
    0.148500        0.012205        0.012205      -12.255690         -102.26        0.00        0.00
    0.149000        0.012205        0.012205       -8.655690          -98.66        0.00        0.00
    0.149500        0.012205        0.012205       -5.055690          -95.06        0.00        0.00
    0.150000        0.012205        0.012205       -1.455690          -91.46        0.00        0.00
    0.150500        0.012205        0.012205        2.144310          -87.86        0.00        0.00
    0.151000        0.012205        0.012205        5.744310          -84.26        0.00        0.00
    0.151500        0.012205        0.012205        9.344310          -80.66        0.00        0.00
    0.152000        0.012205        0.012205       12.944310          -77.06        0.00        0.00
    0.152500        0.012205        0.012205       16.544310          -73.46        0.00        0.00
    0.153000        0.012205        0.012205       20.144310          -69.86        0.00        0.00
    0.153500        0.012205        0.012205       23.744310          -66.26        0.00        0.00
    0.154000        0.012205        0.012205       27.344310          -62.66        0.00        0.00
    0.154500        0.012205        0.012205       30.944310          -59.06        0.00        0.00
    0.155000        0.012205        0.012205       34.544310          -55.46        0.00        0.00
    0.155500        0.012205        0.012205       38.144310          -51.86        0.00        0.00
    0.156000        0.012205        0.012205       41.744310          -48.26        0.00        0.00
    0.156500        0.012205        0.012205       45.344310          -44.66        0.00        0.00
    0.157000        0.012205        0.012205       48.944310          -41.06        0.00        0.00
    0.157500        0.012205        0.012205       52.544310          -37.46        0.00        0.00
    0.158000        0.012205        0.012205       56.144310          -33.86        0.00        0.00
    0.158500        0.012205        0.012205       59.744310          -30.26        0.00        0.00
    0.159000        0.012205        0.012205       63.344310          -26.66        0.00        0.00
    0.159500        0.012205        0.012205       66.944310          -23.06        0.00        0.00
    0.160000        0.012205        0.012205       70.544310          -19.46        0.00        0.00
    0.160500        0.012205        0.012205       74.144310          -15.86        0.00        0.00
    0.161000        0.012205        0.012205       77.744310          -12.26        0.00        0.00
    0.161500        0.012205        0.012205       81.344310           -8.66        0.00        0.00
    0.162000        0.012205        0.012205       84.944310           -5.06        0.00        0.00
    0.162500        0.012205        0.012205       88.544310           -1.46        0.00        0.00
    0.163000        0.012205        0.012205       92.144310            2.14        0.00        0.00
    0.163500        0.012205        0.012205       95.744310            5.74        0.00        0.00
    0.164000        0.012205        0.012205       99.344310            9.34        0.00        0.00
    0.164500        0.012205        0.012205      102.944310           12.94        0.00        0.00
    0.165000        0.012205        0.012205      106.544310           16.54        0.00        0.00
    0.165500        0.012205        0.012205      110.144310           20.14        0.00        0.00
    0.166000        0.012205        0.012205      113.744310           23.74        0.00        0.00
    0.166500        0.012205        0.012205      117.344310           27.34        0.00        0.00
    0.167000        0.012205        0.012205      120.944310           30.94        0.00        0.00
    0.167500        0.012205        0.012205      124.544310           34.54        0.00        0.00
    0.168000        0.012205        0.012205      128.144310           38.14        0.00        0.00
    0.168500        0.012205        0.012205      131.744310           41.74        0.00        0.00
    0.169000        0.012205        0.012205      135.344310           45.34        0.00        0.00
    0.169500        0.012205        0.012205      138.944310           48.94        0.00        0.00
    0.170000        0.012205        0.012205      142.544310           52.54        0.00        0.00
    0.170500        0.012205        0.012205      146.144310           56.14        0.00        0.00
    0.171000        0.012205        0.012205      149.744310           59.74        0.00        0.00
    0.171500        0.012205        0.012205      153.344310           63.34        0.00        0.00
    0.172000        0.012205        0.012205      156.944310           66.94        0.00        0.00
    0.172500        0.012205        0.012205      160.544310           70.54        0.00        0.00
    0.173000        0.012205        0.012205      164.144310           74.14        0.00        0.00
    0.173500        0.012205        0.012205      167.744310           77.74        0.00        0.00
    0.174000        0.012205        0.012205      171.344310           81.34        0.00        0.00
    0.174500        0.012205        0.012205      174.944310           84.94        0.00        0.00
    0.175000        0.012205        0.012205      178.544310           88.54        0.00        0.00
    0.175500        0.012205        0.012205     -177.855690           92.14        0.00        0.00
    0.176000        0.012205        0.012205     -174.255690           95.74        0.00        0.00
    0.176500        0.012205        0.012205     -170.655690           99.34        0.00        0.00
    0.177000        0.012205        0.012205     -167.055690          102.94        0.00        0.00
    0.177500        0.012205        0.012205     -163.455690          106.54        0.00        0.00
    0.178000        0.012205        0.012205     -159.855690          110.14        0.00        0.00
    0.178500        0.012205        0.012205     -156.255690          113.74        0.00        0.00
    0.179000        0.012205        0.012205     -152.655690          117.34        0.00        0.00
    0.179500        0.012205        0.012205     -149.055690          120.94        0.00        0.00
    0.180000        0.012205        0.012205     -145.455690          124.54        0.00        0.00
    0.180500        0.012205        0.012205     -141.855690          128.14        0.00        0.00
    0.181000        0.012205        0.012205     -138.255690          131.74        0.00        0.00
    0.181500        0.012205        0.012205     -134.655690          135.34        0.00        0.00
    0.182000        0.012205        0.012205     -131.055690          138.94        0.00        0.00
    0.182500        0.012205        0.012205     -127.455690          142.54        0.00        0.00
    0.183000        0.012205        0.012205     -123.855690          146.14        0.00        0.00
    0.183500        0.012205        0.012205     -120.255690          149.74        0.00        0.00
    0.184000        0.012205        0.012205     -116.655690          153.34        0.00        0.00
    0.184500        0.012205        0.012205     -113.055690          156.94        0.00        0.00
    0.185000        0.012205        0.012205     -109.455690          160.54        0.00        0.00
    0.185500        0.012205        0.012205     -105.855690          164.14        0.00        0.00
    0.186000        0.012205        0.012205     -102.255690          167.74        0.00        0.00
    0.186500        0.012205        0.012205      -98.655690          171.34        0.00        0.00
    0.187000        0.012205        0.012205      -95.055690          174.94        0.00        0.00
    0.187500        0.012205        0.012205      -91.455690          178.54        0.00        0.00
    0.188000        0.012205        0.012205      -87.855690         -177.86        0.00        0.00
    0.188500        0.012205        0.012205      -84.255690         -174.26        0.00        0.00
    0.189000        0.012205        0.012205      -80.655690         -170.66        0.00        0.00
    0.189500        0.012205        0.012205      -77.055690         -167.06        0.00        0.00
    0.190000        0.012205        0.012205      -73.455690         -163.46        0.00        0.00
    0.190500        0.012205        0.012205      -69.855690         -159.86        0.00        0.00
    0.191000        0.012205        0.012205      -66.255690         -156.26        0.00        0.00
    0.191500        0.012205        0.012205      -62.655690         -152.66        0.00        0.00
    0.192000        0.012205        0.012205      -59.055690         -149.06        0.00        0.00
    0.192500        0.012205        0.012205      -55.455690         -145.46        0.00        0.00
    0.193000        0.012205        0.012205      -51.855690         -141.86        0.00        0.00
    0.193500        0.012205        0.012205      -48.255690         -138.26        0.00        0.00
    0.194000        0.012205        0.012205      -44.655690         -134.66        0.00        0.00
    0.194500        0.012205        0.012205      -41.055690         -131.06        0.00        0.00
    0.195000        0.012205        0.012205      -37.455690         -127.46        0.00        0.00
    0.195500        0.012205        0.012205      -33.855690         -123.86        0.00        0.00
    0.196000        0.012205        0.012205      -30.255690         -120.26        0.00        0.00
    0.196500        0.012205        0.012205      -26.655690         -116.66        0.00        0.00
    0.197000        0.012205        0.012205      -23.055690         -113.06        0.00        0.00
    0.197500        0.012205        0.012205      -19.455690         -109.46        0.00        0.00
    0.198000        0.012205        0.012205      -15.855690         -105.86        0.00        0.00
    0.198500        0.012205        0.012205      -12.255690         -102.26        0.00        0.00
    0.199000        0.012205        0.012205       -8.655690          -98.66        0.00        0.00
    0.199500        0.012205        0.012205       -5.055690          -95.06        0.00        0.00
    0.200000        0.012205        0.012205       -1.455690          -91.46        0.00        0.00
    0.200500        0.012205        0.012205        2.144310          -87.86        0.00        0.00
    0.201000        0.012205        0.012205        5.744310          -84.26        0.00        0.00
    0.201500        0.012205        0.012205        9.344310          -80.66        0.00        0.00
    0.202000        0.012205        0.012205       12.944310          -77.06        0.00        0.00
    0.202500        0.012205        0.012205       16.544310          -73.46        0.00        0.00
    0.203000        0.012205        0.012205       20.144310          -69.86        0.00        0.00
    0.203500        0.012205        0.012205       23.744310          -66.26        0.00        0.00
    0.204000        0.012205        0.012205       27.344310          -62.66        0.00        0.00
    0.204500        0.012205        0.012205       30.944310          -59.06        0.00        0.00
    0.205000        0.012205        0.012205       34.544310          -55.46        0.00        0.00
    0.205500        0.012205        0.012205       38.144310          -51.86        0.00        0.00
    0.206000        0.012205        0.012205       41.744310          -48.26        0.00        0.00
    0.206500        0.012205        0.012205       45.344310          -44.66        0.00        0.00
    0.207000        0.012205        0.012205       48.944310          -41.06        0.00        0.00
    0.207500        0.012205        0.012205       52.544310          -37.46        0.00        0.00
    0.208000        0.012205        0.012205       56.144310          -33.86        0.00        0.00
    0.208500        0.012205        0.012205       59.744310          -30.26        0.00        0.00
    0.209000        0.012205        0.012205       63.344310          -26.66        0.00        0.00
    0.209500        0.012205        0.012205       66.944310          -23.06        0.00        0.00
    0.210000        0.012205        0.012205       70.544310          -19.46        0.00        0.00
    0.210500        0.012205        0.012205       74.144310          -15.86        0.00        0.00
    0.211000        0.012205        0.012205       77.744310          -12.26        0.00        0.00
    0.211500        0.012205        0.012205       81.344310           -8.66        0.00        0.00
    0.212000        0.012205        0.012205       84.944310           -5.06        0.00        0.00
    0.212500        0.012205        0.012205       88.544310           -1.46        0.00        0.00
    0.213000        0.012205        0.012205       92.144310            2.14        0.00        0.00
    0.213500        0.012205        0.012205       95.744310            5.74        0.00        0.00
    0.214000        0.012205        0.012205       99.344310            9.34        0.00        0.00
    0.214500        0.012205        0.012205      102.944310           12.94        0.00        0.00
    0.215000        0.012205        0.012205      106.544310           16.54        0.00        0.00
    0.215500        0.012205        0.012205      110.144310           20.14        0.00        0.00
    0.216000        0.012205        0.012205      113.744310           23.74        0.00        0.00
    0.216500        0.012205        0.012205      117.344310           27.34        0.00        0.00
    0.217000        0.012205        0.012205      120.944310           30.94        0.00        0.00
    0.217500        0.012205        0.012205      124.544310           34.54        0.00        0.00
    0.218000        0.012205        0.012205      128.144310           38.14        0.00        0.00
    0.218500        0.012205        0.012205      131.744310           41.74        0.00        0.00
    0.219000        0.012205        0.012205      135.344310           45.34        0.00        0.00
    0.219500        0.012205        0.012205      138.944310           48.94        0.00        0.00
    0.220000        0.012205        0.012205      142.544310           52.54        0.00        0.00
    0.220500        0.012205        0.012205      146.144310           56.14        0.00        0.00
    0.221000        0.012205        0.012205      149.744310           59.74        0.00        0.00
    0.221500        0.012205        0.012205      153.344310           63.34        0.00        0.00
    0.222000        0.012205        0.012205      156.944310           66.94        0.00        0.00
    0.222500        0.012205        0.012205      160.544310           70.54        0.00        0.00
    0.223000        0.012205        0.012205      164.144310           74.14        0.00        0.00
    0.223500        0.012205        0.012205      167.744310           77.74        0.00        0.00
    0.224000        0.012205        0.012205      171.344310           81.34        0.00        0.00
    0.224500        0.012205        0.012205      174.944310           84.94        0.00        0.00
    0.225000        0.012205        0.012205      178.544310           88.54        0.00        0.00
    0.225500        0.012205        0.012205     -177.855690           92.14        0.00        0.00
    0.226000        0.012205        0.012205     -174.255690           95.74        0.00        0.00
    0.226500        0.012205        0.012205     -170.655690           99.34        0.00        0.00
    0.227000        0.012205        0.012205     -167.055690          102.94        0.00        0.00
    0.227500        0.012205        0.012205     -163.455690          106.54        0.00        0.00
    0.228000        0.012205        0.012205     -159.855690          110.14        0.00        0.00
    0.228500        0.012205        0.012205     -156.255690          113.74        0.00        0.00
    0.229000        0.012205        0.012205     -152.655690          117.34        0.00        0.00
    0.229500        0.012205        0.012205     -149.055690          120.94        0.00        0.00
    0.230000        0.012205        0.012205     -145.455690          124.54        0.00        0.00
    0.230500        0.012205        0.012205     -141.855690          128.14        0.00        0.00
    0.231000        0.012205        0.012205     -138.255690          131.74        0.00        0.00
    0.231500        0.012205        0.012205     -134.655690          135.34        0.00        0.00
    0.232000        0.012205        0.012205     -131.055690          138.94        0.00        0.00
    0.232500        0.012205        0.012205     -127.455690          142.54        0.00        0.00
    0.233000        0.012205        0.012205     -123.855690          146.14        0.00        0.00
    0.233500        0.012205        0.012205     -120.255690          149.74        0.00        0.00
    0.234000        0.012205        0.012205     -116.655690          153.34        0.00        0.00
    0.234500        0.012205        0.012205     -113.055690          156.94        0.00        0.00
    0.235000        0.012205        0.012205     -109.455690          160.54        0.00        0.00
    0.235500        0.012205        0.012205     -105.855690          164.14        0.00        0.00
    0.236000        0.012205        0.012205     -102.255690          167.74        0.00        0.00
    0.236500        0.012205        0.012205      -98.655690          171.34        0.00        0.00
    0.237000        0.012205        0.012205      -95.055690          174.94        0.00        0.00
    0.237500        0.012205        0.012205      -91.455690          178.54        0.00        0.00
    0.238000        0.012205        0.012205      -87.855690         -177.86        0.00        0.00
    0.238500        0.012205        0.012205      -84.255690         -174.26        0.00        0.00
    0.239000        0.012205        0.012205      -80.655690         -170.66        0.00        0.00
    0.239500        0.012205        0.012205      -77.055690         -167.06        0.00        0.00
    0.240000        0.012205        0.012205      -73.455690         -163.46        0.00        0.00
    0.240500        0.012205        0.012205      -69.855690         -159.86        0.00        0.00
    0.241000        0.012205        0.012205      -66.255690         -156.26        0.00        0.00
    0.241500        0.012205        0.012205      -62.655690         -152.66        0.00        0.00
    0.242000        0.012205        0.012205      -59.055690         -149.06        0.00        0.00
    0.242500        0.012205        0.012205      -55.455690         -145.46        0.00        0.00
    0.243000        0.012205        0.012205      -51.855690         -141.86        0.00        0.00
    0.243500        0.012205        0.012205      -48.255690         -138.26        0.00        0.00
    0.244000        0.012205        0.012205      -44.655690         -134.66        0.00        0.00
    0.244500        0.012205        0.012205      -41.055690         -131.06        0.00        0.00
    0.245000        0.012205        0.012205      -37.455690         -127.46        0.00        0.00
    0.245500        0.012205        0.012205      -33.855690         -123.86        0.00        0.00
    0.246000        0.012205        0.012205      -30.255690         -120.26        0.00        0.00
    0.246500        0.012205        0.012205      -26.655690         -116.66        0.00        0.00
    0.247000        0.012205        0.012205      -23.055690         -113.06        0.00        0.00
    0.247500        0.012205        0.012205      -19.455690         -109.46        0.00        0.00
    0.248000        0.012205        0.012205      -15.855690         -105.86        0.00        0.00
    0.248500        0.012205        0.012205      -12.255690         -102.26        0.00        0.00
    0.249000        0.012205        0.012205       -8.655690          -98.66        0.00        0.00
    0.249500        0.012205        0.012205       -5.055690          -95.06        0.00        0.00
    0.250000        0.012205        0.012205       -1.455690          -91.46        0.00        0.00
    0.250500        0.012205        0.012205        2.144310          -87.86        0.00        0.00
    0.251000        0.012205        0.012205        5.744310          -84.26        0.00        0.00
    0.251500        0.012205        0.012205        9.344310          -80.66        0.00        0.00
    0.252000        0.012205        0.012205       12.944310          -77.06        0.00        0.00
    0.252500        0.012205        0.012205       16.544310          -73.46        0.00        0.00
    0.253000        0.012205        0.012205       20.144310          -69.86        0.00        0.00
    0.253500        0.012205        0.012205       23.744310          -66.26        0.00        0.00
    0.254000        0.012205        0.012205       27.344310          -62.66        0.00        0.00
    0.254500        0.012205        0.012205       30.944310          -59.06        0.00        0.00
    0.255000        0.012205        0.012205       34.544310          -55.46        0.00        0.00
    0.255500        0.012205        0.012205       38.144310          -51.86        0.00        0.00
    0.256000        0.012205        0.012205       41.744310          -48.26        0.00        0.00
    0.256500        0.012205        0.012205       45.344310          -44.66        0.00        0.00
    0.257000        0.012205        0.012205       48.944310          -41.06        0.00        0.00
    0.257500        0.012205        0.012205       52.544310          -37.46        0.00        0.00
    0.258000        0.012205        0.012205       56.144310          -33.86        0.00        0.00
    0.258500        0.012205        0.012205       59.744310          -30.26        0.00        0.00
    0.259000        0.012205        0.012205       63.344310          -26.66        0.00        0.00
    0.259500        0.012205        0.012205       66.944310          -23.06        0.00        0.00
    0.260000        0.012205        0.012205       70.544310          -19.46        0.00        0.00
    0.260500        0.012205        0.012205       74.144310          -15.86        0.00        0.00
    0.261000        0.012205        0.012205       77.744310          -12.26        0.00        0.00
    0.261500        0.012205        0.012205       81.344310           -8.66        0.00        0.00
    0.262000        0.012205        0.012205       84.944310           -5.06        0.00        0.00
    0.262500        0.012205        0.012205       88.544310           -1.46        0.00        0.00
    0.263000        0.012205        0.012205       92.144310            2.14        0.00        0.00
    0.263500        0.012205        0.012205       95.744310            5.74        0.00        0.00
    0.264000        0.012205        0.012205       99.344310            9.34        0.00        0.00
    0.264500        0.012205        0.012205      102.944310           12.94        0.00        0.00
    0.265000        0.012205        0.012205      106.544310           16.54        0.00        0.00
    0.265500        0.012205        0.012205      110.144310           20.14        0.00        0.00
    0.266000        0.012205        0.012205      113.744310           23.74        0.00        0.00
    0.266500        0.012205        0.012205      117.344310           27.34        0.00        0.00
    0.267000        0.012205        0.012205      120.944310           30.94        0.00        0.00
    0.267500        0.012205        0.012205      124.544310           34.54        0.00        0.00
    0.268000        0.012205        0.012205      128.144310           38.14        0.00        0.00
    0.268500        0.012205        0.012205      131.744310           41.74        0.00        0.00
    0.269000        0.012205        0.012205      135.344310           45.34        0.00        0.00
    0.269500        0.012205        0.012205      138.944310           48.94        0.00        0.00
    0.270000        0.012205        0.012205      142.544310           52.54        0.00        0.00
    0.270500        0.012205        0.012205      146.144310           56.14        0.00        0.00
    0.271000        0.012205        0.012205      149.744310           59.74        0.00        0.00
    0.271500        0.012205        0.012205      153.344310           63.34        0.00        0.00
    0.272000        0.012205        0.012205      156.944310           66.94        0.00        0.00
    0.272500        0.012205        0.012205      160.544310           70.54        0.00        0.00
    0.273000        0.012205        0.012205      164.144310           74.14        0.00        0.00
    0.273500        0.012205        0.012205      167.744310           77.74        0.00        0.00
    0.274000        0.012205        0.012205      171.344310           81.34        0.00        0.00
    0.274500        0.012205        0.012205      174.944310           84.94        0.00        0.00
    0.275000        0.012205        0.012205      178.544310           88.54        0.00        0.00
    0.275500        0.012205        0.012205     -177.855690           92.14        0.00        0.00
    0.276000        0.012205        0.012205     -174.255690           95.74        0.00        0.00
    0.276500        0.012205        0.012205     -170.655690           99.34        0.00        0.00
    0.277000        0.012205        0.012205     -167.055690          102.94        0.00        0.00
    0.277500        0.012205        0.012205     -163.455690          106.54        0.00        0.00
    0.278000        0.012205        0.012205     -159.855690          110.14        0.00        0.00
    0.278500        0.012205        0.012205     -156.255690          113.74        0.00        0.00
    0.279000        0.012205        0.012205     -152.655690          117.34        0.00        0.00
    0.279500        0.012205        0.012205     -149.055690          120.94        0.00        0.00
    0.280000        0.012205        0.012205     -145.455690          124.54        0.00        0.00
    0.280500        0.012205        0.012205     -141.855690          128.14        0.00        0.00
    0.281000        0.012205        0.012205     -138.255690          131.74        0.00        0.00
    0.281500        0.012205        0.012205     -134.655690          135.34        0.00        0.00
    0.282000        0.012205        0.012205     -131.055690          138.94        0.00        0.00
    0.282500        0.012205        0.012205     -127.455690          142.54        0.00        0.00
    0.283000        0.012205        0.012205     -123.855690          146.14        0.00        0.00
    0.283500        0.012205        0.012205     -120.255690          149.74        0.00        0.00
    0.284000        0.012205        0.012205     -116.655690          153.34        0.00        0.00
    0.284500        0.012205        0.012205     -113.055690          156.94        0.00        0.00
    0.285000        0.012205        0.012205     -109.455690          160.54        0.00        0.00
    0.285500        0.012205        0.012205     -105.855690          164.14        0.00        0.00
    0.286000        0.012205        0.012205     -102.255690          167.74        0.00        0.00
    0.286500        0.012205        0.012205      -98.655690          171.34        0.00        0.00
    0.287000        0.012205        0.012205      -95.055690          174.94        0.00        0.00
    0.287500        0.012205        0.012205      -91.455690          178.54        0.00        0.00
    0.288000        0.012205        0.012205      -87.855690         -177.86        0.00        0.00
    0.288500        0.012205        0.012205      -84.255690         -174.26        0.00        0.00
    0.289000        0.012205        0.012205      -80.655690         -170.66        0.00        0.00
    0.289500        0.012205        0.012205      -77.055690         -167.06        0.00        0.00
    0.290000        0.012205        0.012205      -73.455690         -163.46        0.00        0.00
    0.290500        0.012205        0.012205      -69.855690         -159.86        0.00        0.00
    0.291000        0.012205        0.012205      -66.255690         -156.26        0.00        0.00
    0.291500        0.012205        0.012205      -62.655690         -152.66        0.00        0.00
    0.292000        0.012205        0.012205      -59.055690         -149.06        0.00        0.00
    0.292500        0.012205        0.012205      -55.455690         -145.46        0.00        0.00
    0.293000        0.012205        0.012205      -51.855690         -141.86        0.00        0.00
    0.293500        0.012205        0.012205      -48.255690         -138.26        0.00        0.00
    0.294000        0.012205        0.012205      -44.655690         -134.66        0.00        0.00
    0.294500        0.012205        0.012205      -41.055690         -131.06        0.00        0.00
    0.295000        0.012205        0.012205      -37.455690         -127.46        0.00        0.00
    0.295500        0.012205        0.012205      -33.855690         -123.86        0.00        0.00
    0.296000        0.012205        0.012205      -30.255690         -120.26        0.00        0.00
    0.296500        0.012205        0.012205      -26.655690         -116.66        0.00        0.00
    0.297000        0.012205        0.012205      -23.055690         -113.06        0.00        0.00
    0.297500        0.012205        0.012205      -19.455690         -109.46        0.00        0.00
    0.298000        0.012205        0.012205      -15.855690         -105.86        0.00        0.00
    0.298500        0.012205        0.012205      -12.255690         -102.26        0.00        0.00
    0.299000        0.012205        0.012205       -8.655690          -98.66        0.00        0.00
    0.299500        0.012205        0.012205       -5.055690          -95.06        0.00        0.00
    0.300000        0.012205        0.012205       -1.455690          -91.46        0.00        0.00
    0.300500        0.012205        0.012205        2.144310          -87.86        0.00        0.00
    0.301000        0.012205        0.012205        5.744310          -84.26        0.00        0.00
    0.301500        0.012205        0.012205        9.344310          -80.66        0.00        0.00
    0.302000        0.012205        0.012205       12.944310          -77.06        0.00        0.00
    0.302500        0.012205        0.012205       16.544310          -73.46        0.00        0.00
    0.303000        0.012205        0.012205       20.144310          -69.86        0.00        0.00
    0.303500        0.012205        0.012205       23.744310          -66.26        0.00        0.00
    0.304000        0.012205        0.012205       27.344310          -62.66        0.00        0.00
    0.304500        0.012205        0.012205       30.944310          -59.06        0.00        0.00
    0.305000        0.012205        0.012205       34.544310          -55.46        0.00        0.00
    0.305500        0.012205        0.012205       38.144310          -51.86        0.00        0.00
    0.306000        0.012205        0.012205       41.744310          -48.26        0.00        0.00
    0.306500        0.012205        0.012205       45.344310          -44.66        0.00        0.00
    0.307000        0.012205        0.012205       48.944310          -41.06        0.00        0.00
    0.307500        0.012205        0.012205       52.544310          -37.46        0.00        0.00
    0.308000        0.012205        0.012205       56.144310          -33.86        0.00        0.00
    0.308500        0.012205        0.012205       59.744310          -30.26        0.00        0.00
    0.309000        0.012205        0.012205       63.344310          -26.66        0.00        0.00
    0.309500        0.012205        0.012205       66.944310          -23.06        0.00        0.00
    0.310000        0.012205        0.012205       70.544310          -19.46        0.00        0.00
    0.310500        0.012205        0.012205       74.144310          -15.86        0.00        0.00
    0.311000        0.012205        0.012205       77.744310          -12.26        0.00        0.00
    0.311500        0.012205        0.012205       81.344310           -8.66        0.00        0.00
    0.312000        0.012205        0.012205       84.944310           -5.06        0.00        0.00
    0.312500        0.012205        0.012205       88.544310           -1.46        0.00        0.00
    0.313000        0.012205        0.012205       92.144310            2.14        0.00        0.00
    0.313500        0.012205        0.012205       95.744310            5.74        0.00        0.00
    0.314000        0.012205        0.012205       99.344310            9.34        0.00        0.00
    0.314500        0.012205        0.012205      102.944310           12.94        0.00        0.00
    0.315000        0.012205        0.012205      106.544310           16.54        0.00        0.00
    0.315500        0.012205        0.012205      110.144310           20.14        0.00        0.00
    0.316000        0.012205        0.012205      113.744310           23.74        0.00        0.00
    0.316500        0.012205        0.012205      117.344310           27.34        0.00        0.00
    0.317000        0.012205        0.012205      120.944310           30.94        0.00        0.00
    0.317500        0.012205        0.012205      124.544310           34.54        0.00        0.00
    0.318000        0.012205        0.012205      128.144310           38.14        0.00        0.00
    0.318500        0.012205        0.012205      131.744310           41.74        0.00        0.00
    0.319000        0.012205        0.012205      135.344310           45.34        0.00        0.00
    0.319500        0.012205        0.012205      138.944310           48.94        0.00        0.00
    0.320000        0.012205        0.012205      142.544310           52.54        0.00        0.00
    0.320500        0.012205        0.012205      146.144310           56.14        0.00        0.00
    0.321000        0.012205        0.012205      149.744310           59.74        0.00        0.00
    0.321500        0.012205        0.012205      153.344310           63.34        0.00        0.00
    0.322000        0.012205        0.012205      156.944310           66.94        0.00        0.00
    0.322500        0.012205        0.012205      160.544310           70.54        0.00        0.00
    0.323000        0.012205        0.012205      164.144310           74.14        0.00        0.00
    0.323500        0.012205        0.012205      167.744310           77.74        0.00        0.00
    0.324000        0.012205        0.012205      171.344310           81.34        0.00        0.00
    0.324500        0.012205        0.012205      174.944310           84.94        0.00        0.00
    0.325000        0.012205        0.012205      178.544310           88.54        0.00        0.00
    0.325500        0.012205        0.012205     -177.855690           92.14        0.00        0.00
    0.326000        0.012205        0.012205     -174.255690           95.74        0.00        0.00
    0.326500        0.012205        0.012205     -170.655690           99.34        0.00        0.00
    0.327000        0.012205        0.012205     -167.055690          102.94        0.00        0.00
    0.327500        0.012205        0.012205     -163.455690          106.54        0.00        0.00
    0.328000        0.012205        0.012205     -159.855690          110.14        0.00        0.00
    0.328500        0.012205        0.012205     -156.255690          113.74        0.00        0.00
    0.329000        0.012205        0.012205     -152.655690          117.34        0.00        0.00
    0.329500        0.012205        0.012205     -149.055690          120.94        0.00        0.00
    0.330000        0.012205        0.012205     -145.455690          124.54        0.00        0.00
    0.330500        0.012205        0.012205     -141.855690          128.14        0.00        0.00
    0.331000        0.012205        0.012205     -138.255690          131.74        0.00        0.00
    0.331500        0.012205        0.012205     -134.655690          135.34        0.00        0.00
    0.332000        0.012205        0.012205     -131.055690          138.94        0.00        0.00
    0.332500        0.012205        0.012205     -127.455690          142.54        0.00        0.00
    0.333000        0.012205        0.012205     -123.855690          146.14        0.00        0.00
    0.333500        0.012205        0.012205     -120.255690          149.74        0.00        0.00
    0.334000        0.012205        0.012205     -116.655690          153.34        0.00        0.00
    0.334500        0.012205        0.012205     -113.055690          156.94        0.00        0.00
    0.335000        0.012205        0.012205     -109.455690          160.54        0.00        0.00
    0.335500        0.012205        0.012205     -105.855690          164.14        0.00        0.00
    0.336000        0.012205        0.012205     -102.255690          167.74        0.00        0.00
    0.336500        0.012205        0.012205      -98.655690          171.34        0.00        0.00
    0.337000        0.012205        0.012205      -95.055690          174.94        0.00        0.00
    0.337500        0.012205        0.012205      -91.455690          178.54        0.00        0.00
    0.338000        0.012205        0.012205      -87.855690         -177.86        0.00        0.00
    0.338500        0.012205        0.012205      -84.255690         -174.26        0.00        0.00
    0.339000        0.012205        0.012205      -80.655690         -170.66        0.00        0.00
    0.339500        0.012205        0.012205      -77.055690         -167.06        0.00        0.00
    0.340000        0.012205        0.012205      -73.455690         -163.46        0.00        0.00
    0.340500        0.012205        0.012205      -69.855690         -159.86        0.00        0.00
    0.341000        0.012205        0.012205      -66.255690         -156.26        0.00        0.00
    0.341500        0.012205        0.012205      -62.655690         -152.66        0.00        0.00
    0.342000        0.012205        0.012205      -59.055690         -149.06        0.00        0.00
    0.342500        0.012205        0.012205      -55.455690         -145.46        0.00        0.00
    0.343000        0.012205        0.012205      -51.855690         -141.86        0.00        0.00
    0.343500        0.012205        0.012205      -48.255690         -138.26        0.00        0.00
    0.344000        0.012205        0.012205      -44.655690         -134.66        0.00        0.00
    0.344500        0.012205        0.012205      -41.055690         -131.06        0.00        0.00
    0.345000        0.012205        0.012205      -37.455690         -127.46        0.00        0.00
    0.345500        0.012205        0.012205      -33.855690         -123.86        0.00        0.00
    0.346000        0.012205        0.012205      -30.255690         -120.26        0.00        0.00
    0.346500        0.012205        0.012205      -26.655690         -116.66        0.00        0.00
    0.347000        0.012205        0.012205      -23.055690         -113.06        0.00        0.00
    0.347500        0.012205        0.012205      -19.455690         -109.46        0.00        0.00
    0.348000        0.012205        0.012205      -15.855690         -105.86        0.00        0.00
    0.348500        0.012205        0.012205      -12.255690         -102.26        0.00        0.00
    0.349000        0.012205        0.012205       -8.655690          -98.66        0.00        0.00
    0.349500        0.012205        0.012205       -5.055690          -95.06        0.00        0.00
    0.350000        0.012205        0.012205       -1.455690          -91.46        0.00        0.00
    0.350500        0.012205        0.012205        2.144310          -87.86        0.00        0.00
    0.351000        0.012205        0.012205        5.744310          -84.26        0.00        0.00
    0.351500        0.012205        0.012205        9.344310          -80.66        0.00        0.00
    0.352000        0.012205        0.012205       12.944310          -77.06        0.00        0.00
    0.352500        0.012205        0.012205       16.544310          -73.46        0.00        0.00
    0.353000        0.012205        0.012205       20.144310          -69.86        0.00        0.00
    0.353500        0.012205        0.012205       23.744310          -66.26        0.00        0.00
    0.354000        0.012205        0.012205       27.344310          -62.66        0.00        0.00
    0.354500        0.012205        0.012205       30.944310          -59.06        0.00        0.00
    0.355000        0.012205        0.012205       34.544310          -55.46        0.00        0.00
    0.355500        0.012205        0.012205       38.144310          -51.86        0.00        0.00
    0.356000        0.012205        0.012205       41.744310          -48.26        0.00        0.00
    0.356500        0.012205        0.012205       45.344310          -44.66        0.00        0.00
    0.357000        0.012205        0.012205       48.944310          -41.06        0.00        0.00
    0.357500        0.012205        0.012205       52.544310          -37.46        0.00        0.00
    0.358000        0.012205        0.012205       56.144310          -33.86        0.00        0.00
    0.358500        0.012205        0.012205       59.744310          -30.26        0.00        0.00
    0.359000        0.012205        0.012205       63.344310          -26.66        0.00        0.00
    0.359500        0.012205        0.012205       66.944310          -23.06        0.00        0.00
    0.360000        0.012205        0.012205       70.544310          -19.46        0.00        0.00
    0.360500        0.012205        0.012205       74.144310          -15.86        0.00        0.00
    0.361000        0.012205        0.012205       77.744310          -12.26        0.00        0.00
    0.361500        0.012205        0.012205       81.344310           -8.66        0.00        0.00
    0.362000        0.012205        0.012205       84.944310           -5.06        0.00        0.00
    0.362500        0.012205        0.012205       88.544310           -1.46        0.00        0.00
    0.363000        0.012205        0.012205       92.144310            2.14        0.00        0.00
    0.363500        0.012205        0.012205       95.744310            5.74        0.00        0.00
    0.364000        0.012205        0.012205       99.344310            9.34        0.00        0.00
    0.364500        0.012205        0.012205      102.944310           12.94        0.00        0.00
    0.365000        0.012205        0.012205      106.544310           16.54        0.00        0.00
    0.365500        0.012205        0.012205      110.144310           20.14        0.00        0.00
    0.366000        0.012205        0.012205      113.744310           23.74        0.00        0.00
    0.366500        0.012205        0.012205      117.344310           27.34        0.00        0.00
    0.367000        0.012205        0.012205      120.944310           30.94        0.00        0.00
    0.367500        0.012205        0.012205      124.544310           34.54        0.00        0.00
    0.368000        0.012205        0.012205      128.144310           38.14        0.00        0.00
    0.368500        0.012205        0.012205      131.744310           41.74        0.00        0.00
    0.369000        0.012205        0.012205      135.344310           45.34        0.00        0.00
    0.369500        0.012205        0.012205      138.944310           48.94        0.00        0.00
    0.370000        0.012205        0.012205      142.544310           52.54        0.00        0.00
    0.370500        0.012205        0.012205      146.144310           56.14        0.00        0.00
    0.371000        0.012205        0.012205      149.744310           59.74        0.00        0.00
    0.371500        0.012205        0.012205      153.344310           63.34        0.00        0.00
    0.372000        0.012205        0.012205      156.944310           66.94        0.00        0.00
    0.372500        0.012205        0.012205      160.544310           70.54        0.00        0.00
    0.373000        0.012205        0.012205      164.144310           74.14        0.00        0.00
    0.373500        0.012205        0.012205      167.744310           77.74        0.00        0.00
    0.374000        0.012205        0.012205      171.344310           81.34        0.00        0.00
    0.374500        0.012205        0.012205      174.944310           84.94        0.00        0.00
    0.375000        0.012205        0.012205      178.544310           88.54        0.00        0.00
    0.375500        0.012205        0.012205     -177.855690           92.14        0.00        0.00
    0.376000        0.012205        0.012205     -174.255690           95.74        0.00        0.00
    0.376500        0.012205        0.012205     -170.655690           99.34        0.00        0.00
    0.377000        0.012205        0.012205     -167.055690          102.94        0.00        0.00
    0.377500        0.012205        0.012205     -163.455690          106.54        0.00        0.00
    0.378000        0.012205        0.012205     -159.855690          110.14        0.00        0.00
    0.378500        0.012205        0.012205     -156.255690          113.74        0.00        0.00
    0.379000        0.012205        0.012205     -152.655690          117.34        0.00        0.00
    0.379500        0.012205        0.012205     -149.055690          120.94        0.00        0.00
    0.380000        0.012205        0.012205     -145.455690          124.54        0.00        0.00
    0.380500        0.012205        0.012205     -141.855690          128.14        0.00        0.00
    0.381000        0.012205        0.012205     -138.255690          131.74        0.00        0.00
    0.381500        0.012205        0.012205     -134.655690          135.34        0.00        0.00
    0.382000        0.012205        0.012205     -131.055690          138.94        0.00        0.00
    0.382500        0.012205        0.012205     -127.455690          142.54        0.00        0.00
    0.383000        0.012205        0.012205     -123.855690          146.14        0.00        0.00
    0.383500        0.012205        0.012205     -120.255690          149.74        0.00        0.00
    0.384000        0.012205        0.012205     -116.655690          153.34        0.00        0.00
    0.384500        0.012205        0.012205     -113.055690          156.94        0.00        0.00
    0.385000        0.012205        0.012205     -109.455690          160.54        0.00        0.00
    0.385500        0.012205        0.012205     -105.855690          164.14        0.00        0.00
    0.386000        0.012205        0.012205     -102.255690          167.74        0.00        0.00
    0.386500        0.012205        0.012205      -98.655690          171.34        0.00        0.00
    0.387000        0.012205        0.012205      -95.055690          174.94        0.00        0.00
    0.387500        0.012205        0.012205      -91.455690          178.54        0.00        0.00
    0.388000        0.012205        0.012205      -87.855690         -177.86        0.00        0.00
    0.388500        0.012205        0.012205      -84.255690         -174.26        0.00        0.00
    0.389000        0.012205        0.012205      -80.655690         -170.66        0.00        0.00
    0.389500        0.012205        0.012205      -77.055690         -167.06        0.00        0.00
    0.390000        0.012205        0.012205      -73.455690         -163.46        0.00        0.00
    0.390500        0.012205        0.012205      -69.855690         -159.86        0.00        0.00
    0.391000        0.012205        0.012205      -66.255690         -156.26        0.00        0.00
    0.391500        0.012205        0.012205      -62.655690         -152.66        0.00        0.00
    0.392000        0.012205        0.012205      -59.055690         -149.06        0.00        0.00
    0.392500        0.012205        0.012205      -55.455690         -145.46        0.00        0.00
    0.393000        0.012205        0.012205      -51.855690         -141.86        0.00        0.00
    0.393500        0.012205        0.012205      -48.255690         -138.26        0.00        0.00
    0.394000        0.012205        0.012205      -44.655690         -134.66        0.00        0.00
    0.394500        0.012205        0.012205      -41.055690         -131.06        0.00        0.00
    0.395000        0.012205        0.012205      -37.455690         -127.46        0.00        0.00
    0.395500        0.012205        0.012205      -33.855690         -123.86        0.00        0.00
    0.396000        0.012205        0.012205      -30.255690         -120.26        0.00        0.00
    0.396500        0.012205        0.012205      -26.655690         -116.66        0.00        0.00
    0.397000        0.012205        0.012205      -23.055690         -113.06        0.00        0.00
    0.397500        0.012205        0.012205      -19.455690         -109.46        0.00        0.00
    0.398000        0.012205        0.012205      -15.855690         -105.86        0.00        0.00
    0.398500        0.012205        0.012205      -12.255690         -102.26        0.00        0.00
    0.399000        0.012205        0.012205       -8.655690          -98.66        0.00        0.00
    0.399500        0.012205        0.012205       -5.055690          -95.06        0.00        0.00
    0.400000        0.012205        0.012205       -1.455690          -91.46        0.00        0.00
    0.400500        0.012205        0.012205        2.144310          -87.86        0.00        0.00
    0.401000        0.012205        0.012205        5.744310          -84.26        0.00        0.00
    0.401500        0.012205        0.012205        9.344310          -80.66        0.00        0.00
    0.402000        0.012205        0.012205       12.944310          -77.06        0.00        0.00
    0.402500        0.012205        0.012205       16.544310          -73.46        0.00        0.00
    0.403000        0.012205        0.012205       20.144310          -69.86        0.00        0.00
    0.403500        0.012205        0.012205       23.744310          -66.26        0.00        0.00
    0.404000        0.012205        0.012205       27.344310          -62.66        0.00        0.00
    0.404500        0.012205        0.012205       30.944310          -59.06        0.00        0.00
    0.405000        0.012205        0.012205       34.544310          -55.46        0.00        0.00
    0.405500        0.012205        0.012205       38.144310          -51.86        0.00        0.00
    0.406000        0.012205        0.012205       41.744310          -48.26        0.00        0.00
    0.406500        0.012205        0.012205       45.344310          -44.66        0.00        0.00
    0.407000        0.012205        0.012205       48.944310          -41.06        0.00        0.00
    0.407500        0.012205        0.012205       52.544310          -37.46        0.00        0.00
    0.408000        0.012205        0.012205       56.144310          -33.86        0.00        0.00
    0.408500        0.012205        0.012205       59.744310          -30.26        0.00        0.00
    0.409000        0.012205        0.012205       63.344310          -26.66        0.00        0.00
    0.409500        0.012205        0.012205       66.944310          -23.06        0.00        0.00
    0.410000        0.012205        0.012205       70.544310          -19.46        0.00        0.00
    0.410500        0.012205        0.012205       74.144310          -15.86        0.00        0.00
    0.411000        0.012205        0.012205       77.744310          -12.26        0.00        0.00
    0.411500        0.012205        0.012205       81.344310           -8.66        0.00        0.00
    0.412000        0.012205        0.012205       84.944310           -5.06        0.00        0.00
    0.412500        0.012205        0.012205       88.544310           -1.46        0.00        0.00
    0.413000        0.012205        0.012205       92.144310            2.14        0.00        0.00
    0.413500        0.012205        0.012205       95.744310            5.74        0.00        0.00
    0.414000        0.012205        0.012205       99.344310            9.34        0.00        0.00
    0.414500        0.012205        0.012205      102.944310           12.94        0.00        0.00
    0.415000        0.012205        0.012205      106.544310           16.54        0.00        0.00
    0.415500        0.012205        0.012205      110.144310           20.14        0.00        0.00
    0.416000        0.012205        0.012205      113.744310           23.74        0.00        0.00
    0.416500        0.012205        0.012205      117.344310           27.34        0.00        0.00
    0.417000        0.012205        0.012205      120.944310           30.94        0.00        0.00
    0.417500        0.012205        0.012205      124.544310           34.54        0.00        0.00
    0.418000        0.012205        0.012205      128.144310           38.14        0.00        0.00
    0.418500        0.012205        0.012205      131.744310           41.74        0.00        0.00
    0.419000        0.012205        0.012205      135.344310           45.34        0.00        0.00
    0.419500        0.012205        0.012205      138.944310           48.94        0.00        0.00
    0.420000        0.012205        0.012205      142.544310           52.54        0.00        0.00
    0.420500        0.012205        0.012205      146.144310           56.14        0.00        0.00
    0.421000        0.012205        0.012205      149.744310           59.74        0.00        0.00
    0.421500        0.012205        0.012205      153.344310           63.34        0.00        0.00
    0.422000        0.012205        0.012205      156.944310           66.94        0.00        0.00
    0.422500        0.012205        0.012205      160.544310           70.54        0.00        0.00
    0.423000        0.012205        0.012205      164.144310           74.14        0.00        0.00
    0.423500        0.012205        0.012205      167.744310           77.74        0.00        0.00
    0.424000        0.012205        0.012205      171.344310           81.34        0.00        0.00
    0.424500        0.012205        0.012205      174.944310           84.94        0.00        0.00
    0.425000        0.012205        0.012205      178.544310           88.54        0.00        0.00
    0.425500        0.012205        0.012205     -177.855690           92.14        0.00        0.00
    0.426000        0.012205        0.012205     -174.255690           95.74        0.00        0.00
    0.426500        0.012205        0.012205     -170.655690           99.34        0.00        0.00
    0.427000        0.012205        0.012205     -167.055690          102.94        0.00        0.00
    0.427500        0.012205        0.012205     -163.455690          106.54        0.00        0.00
    0.428000        0.012205        0.012205     -159.855690          110.14        0.00        0.00
    0.428500        0.012205        0.012205     -156.255690          113.74        0.00        0.00
    0.429000        0.012205        0.012205     -152.655690          117.34        0.00        0.00
    0.429500        0.012205        0.012205     -149.055690          120.94        0.00        0.00
    0.430000        0.012205        0.012205     -145.455690          124.54        0.00        0.00
    0.430500        0.012205        0.012205     -141.855690          128.14        0.00        0.00
    0.431000        0.012205        0.012205     -138.255690          131.74        0.00        0.00
    0.431500        0.012205        0.012205     -134.655690          135.34        0.00        0.00
    0.432000        0.012205        0.012205     -131.055690          138.94        0.00        0.00
    0.432500        0.012205        0.012205     -127.455690          142.54        0.00        0.00
    0.433000        0.012205        0.012205     -123.855690          146.14        0.00        0.00
    0.433500        0.012205        0.012205     -120.255690          149.74        0.00        0.00
    0.434000        0.012205        0.012205     -116.655690          153.34        0.00        0.00
    0.434500        0.012205        0.012205     -113.055690          156.94        0.00        0.00
    0.435000        0.012205        0.012205     -109.455690          160.54        0.00        0.00
    0.435500        0.012205        0.012205     -105.855690          164.14        0.00        0.00
    0.436000        0.012205        0.012205     -102.255690          167.74        0.00        0.00
    0.436500        0.012205        0.012205      -98.655690          171.34        0.00        0.00
    0.437000        0.012205        0.012205      -95.055690          174.94        0.00        0.00
    0.437500        0.012205        0.012205      -91.455690          178.54        0.00        0.00
    0.438000        0.012205        0.012205      -87.855690         -177.86        0.00        0.00
    0.438500        0.012205        0.012205      -84.255690         -174.26        0.00        0.00
    0.439000        0.012205        0.012205      -80.655690         -170.66        0.00        0.00
    0.439500        0.012205        0.012205      -77.055690         -167.06        0.00        0.00
    0.440000        0.012205        0.012205      -73.455690         -163.46        0.00        0.00
    0.440500        0.012205        0.012205      -69.855690         -159.86        0.00        0.00
    0.441000        0.012205        0.012205      -66.255690         -156.26        0.00        0.00
    0.441500        0.012205        0.012205      -62.655690         -152.66        0.00        0.00
    0.442000        0.012205        0.012205      -59.055690         -149.06        0.00        0.00
    0.442500        0.012205        0.012205      -55.455690         -145.46        0.00        0.00
    0.443000        0.012205        0.012205      -51.855690         -141.86        0.00        0.00
    0.443500        0.012205        0.012205      -48.255690         -138.26        0.00        0.00
    0.444000        0.012205        0.012205      -44.655690         -134.66        0.00        0.00
    0.444500        0.012205        0.012205      -41.055690         -131.06        0.00        0.00
    0.445000        0.012205        0.012205      -37.455690         -127.46        0.00        0.00
    0.445500        0.012205        0.012205      -33.855690         -123.86        0.00        0.00
    0.446000        0.012205        0.012205      -30.255690         -120.26        0.00        0.00
    0.446500        0.012205        0.012205      -26.655690         -116.66        0.00        0.00
    0.447000        0.012205        0.012205      -23.055690         -113.06        0.00        0.00
    0.447500        0.012205        0.012205      -19.455690         -109.46        0.00        0.00
    0.448000        0.012205        0.012205      -15.855690         -105.86        0.00        0.00
    0.448500        0.012205        0.012205      -12.255690         -102.26        0.00        0.00
    0.449000        0.012205        0.012205       -8.655690          -98.66        0.00        0.00
    0.449500        0.012205        0.012205       -5.055690          -95.06        0.00        0.00
    0.450000        0.012205        0.012205       -1.455690          -91.46        0.00        0.00
    0.450500        0.012205        0.012205        2.144310          -87.86        0.00        0.00
    0.451000        0.012205        0.012205        5.744310          -84.26        0.00        0.00
    0.451500        0.012205        0.012205        9.344310          -80.66        0.00        0.00
    0.452000        0.012205        0.012205       12.944310          -77.06        0.00        0.00
    0.452500        0.012205        0.012205       16.544310          -73.46        0.00        0.00
    0.453000        0.012205        0.012205       20.144310          -69.86        0.00        0.00
    0.453500        0.012205        0.012205       23.744310          -66.26        0.00        0.00
    0.454000        0.012205        0.012205       27.344310          -62.66        0.00        0.00
    0.454500        0.012205        0.012205       30.944310          -59.06        0.00        0.00
    0.455000        0.012205        0.012205       34.544310          -55.46        0.00        0.00
    0.455500        0.012205        0.012205       38.144310          -51.86        0.00        0.00
    0.456000        0.012205        0.012205       41.744310          -48.26        0.00        0.00
    0.456500        0.012205        0.012205       45.344310          -44.66        0.00        0.00
    0.457000        0.012205        0.012205       48.944310          -41.06        0.00        0.00
    0.457500        0.012205        0.012205       52.544310          -37.46        0.00        0.00
    0.458000        0.012205        0.012205       56.144310          -33.86        0.00        0.00
    0.458500        0.012205        0.012205       59.744310          -30.26        0.00        0.00
    0.459000        0.012205        0.012205       63.344310          -26.66        0.00        0.00
    0.459500        0.012205        0.012205       66.944310          -23.06        0.00        0.00
    0.460000        0.012205        0.012205       70.544310          -19.46        0.00        0.00
    0.460500        0.012205        0.012205       74.144310          -15.86        0.00        0.00
    0.461000        0.012205        0.012205       77.744310          -12.26        0.00        0.00
    0.461500        0.012205        0.012205       81.344310           -8.66        0.00        0.00
    0.462000        0.012205        0.012205       84.944310           -5.06        0.00        0.00
    0.462500        0.012205        0.012205       88.544310           -1.46        0.00        0.00
    0.463000        0.012205        0.012205       92.144310            2.14        0.00        0.00
    0.463500        0.012205        0.012205       95.744310            5.74        0.00        0.00
    0.464000        0.012205        0.012205       99.344310            9.34        0.00        0.00
    0.464500        0.012205        0.012205      102.944310           12.94        0.00        0.00
    0.465000        0.012205        0.012205      106.544310           16.54        0.00        0.00
    0.465500        0.012205        0.012205      110.144310           20.14        0.00        0.00
    0.466000        0.012205        0.012205      113.744310           23.74        0.00        0.00
    0.466500        0.012205        0.012205      117.344310           27.34        0.00        0.00
    0.467000        0.012205        0.012205      120.944310           30.94        0.00        0.00
    0.467500        0.012205        0.012205      124.544310           34.54        0.00        0.00
    0.468000        0.012205        0.012205      128.144310           38.14        0.00        0.00
    0.468500        0.012205        0.012205      131.744310           41.74        0.00        0.00
    0.469000        0.012205        0.012205      135.344310           45.34        0.00        0.00
    0.469500        0.012205        0.012205      138.944310           48.94        0.00        0.00
    0.470000        0.012205        0.012205      142.544310           52.54        0.00        0.00
    0.470500        0.012205        0.012205      146.144310           56.14        0.00        0.00
    0.471000        0.012205        0.012205      149.744310           59.74        0.00        0.00
    0.471500        0.012205        0.012205      153.344310           63.34        0.00        0.00
    0.472000        0.012205        0.012205      156.944310           66.94        0.00        0.00
    0.472500        0.012205        0.012205      160.544310           70.54        0.00        0.00
    0.473000        0.012205        0.012205      164.144310           74.14        0.00        0.00
    0.473500        0.012205        0.012205      167.744310           77.74        0.00        0.00
    0.474000        0.012205        0.012205      171.344310           81.34        0.00        0.00
    0.474500        0.012205        0.012205      174.944310           84.94        0.00        0.00
    0.475000        0.012205        0.012205      178.544310           88.54        0.00        0.00
    0.475500        0.012205        0.012205     -177.855690           92.14        0.00        0.00
    0.476000        0.012205        0.012205     -174.255690           95.74        0.00        0.00
    0.476500        0.012205        0.012205     -170.655690           99.34        0.00        0.00
    0.477000        0.012205        0.012205     -167.055690          102.94        0.00        0.00
    0.477500        0.012205        0.012205     -163.455690          106.54        0.00        0.00
    0.478000        0.012205        0.012205     -159.855690          110.14        0.00        0.00
    0.478500        0.012205        0.012205     -156.255690          113.74        0.00        0.00
    0.479000        0.012205        0.012205     -152.655690          117.34        0.00        0.00
    0.479500        0.012205        0.012205     -149.055690          120.94        0.00        0.00
    0.480000        0.012205        0.012205     -145.455690          124.54        0.00        0.00
    0.480500        0.012205        0.012205     -141.855690          128.14        0.00        0.00
    0.481000        0.012205        0.012205     -138.255690          131.74        0.00        0.00
    0.481500        0.012205        0.012205     -134.655690          135.34        0.00        0.00
    0.482000        0.012205        0.012205     -131.055690          138.94        0.00        0.00
    0.482500        0.012205        0.012205     -127.455690          142.54        0.00        0.00
    0.483000        0.012205        0.012205     -123.855690          146.14        0.00        0.00
    0.483500        0.012205        0.012205     -120.255690          149.74        0.00        0.00
    0.484000        0.012205        0.012205     -116.655690          153.34        0.00        0.00
    0.484500        0.012205        0.012205     -113.055690          156.94        0.00        0.00
    0.485000        0.012205        0.012205     -109.455690          160.54        0.00        0.00
    0.485500        0.012205        0.012205     -105.855690          164.14        0.00        0.00
    0.486000        0.012205        0.012205     -102.255690          167.74        0.00        0.00
    0.486500        0.012205        0.012205      -98.655690          171.34        0.00        0.00
    0.487000        0.012205        0.012205      -95.055690          174.94        0.00        0.00
    0.487500        0.012205        0.012205      -91.455690          178.54        0.00        0.00
    0.488000        0.012205        0.012205      -87.855690         -177.86        0.00        0.00
    0.488500        0.012205        0.012205      -84.255690         -174.26        0.00        0.00
    0.489000        0.012205        0.012205      -80.655690         -170.66        0.00        0.00
    0.489500        0.012205        0.012205      -77.055690         -167.06        0.00        0.00
    0.490000        0.012205        0.012205      -73.455690         -163.46        0.00        0.00
    0.490500        0.012205        0.012205      -69.855690         -159.86        0.00        0.00
    0.491000        0.012205        0.012205      -66.255690         -156.26        0.00        0.00
    0.491500        0.012205        0.012205      -62.655690         -152.66        0.00        0.00
    0.492000        0.012205        0.012205      -59.055690         -149.06        0.00        0.00
    0.492500        0.012205        0.012205      -55.455690         -145.46        0.00        0.00
    0.493000        0.012205        0.012205      -51.855690         -141.86        0.00        0.00
    0.493500        0.012205        0.012205      -48.255690         -138.26        0.00        0.00
    0.494000        0.012205        0.012205      -44.655690         -134.66        0.00        0.00
    0.494500        0.012205        0.012205      -41.055690         -131.06        0.00        0.00
    0.495000        0.012205        0.012205      -37.455690         -127.46        0.00        0.00
    0.495500        0.012205        0.012205      -33.855690         -123.86        0.00        0.00
    0.496000        0.012205        0.012205      -30.255690         -120.26        0.00        0.00
    0.496500        0.012205        0.012205      -26.655690         -116.66        0.00        0.00
    0.497000        0.012205        0.012205      -23.055690         -113.06        0.00        0.00
    0.497500        0.012205        0.012205      -19.455690         -109.46        0.00        0.00
    0.498000        0.012205        0.012205      -15.855690         -105.86        0.00        0.00
    0.498500        0.012205        0.012205      -12.255690         -102.26        0.00        0.00
    0.499000        0.012205        0.012205       -8.655690          -98.66        0.00        0.00
    0.499500        0.012205        0.012205       -5.055690          -95.06        0.00        0.00
    0.500000        0.012205        0.012205       -1.455690          -91.46        0.00        0.00
    0.500500        0.012205        0.012205        2.144310          -87.86        0.00        0.00
